File: data/2022-09-06_EDS-SEM-APREO/Al_30kV.emsa
#FORMAT      : EMSA/MAS Spectral Data File
#VERSION     : 1.0
#TITLE       : Fe_30kV
#DATE        : 06-SEP-2022
#TIME        : 17:40
#OWNER       :
#NPOINTS     : 2048.0
#NCOLUMNS    : 1.0
#XUNITS      : keV
#YUNITS      : counts
#DATATYPE    : XY
#XPERCHAN    : 0.01
#OFFSET      : -0.2
#SIGNALTYPE  : EDS
#CHOFFSET    : 20.0
#LIVETIME    : 120.0
#REALTIME    : 154.287
#BEAMKV      : 30.0
#MAGCAM      : 1566.0
#XTILTSTGE   : 0.0
#AZIMANGLE   : 0.0
#ELEVANGLE   : 35.0
#XPOSITION mm: 24.6591
#YPOSITION mm: 14.8393
#ZPOSITION mm: 9.9088
##OXINSTPT   : 5
##OXINSTSTROB: 36.12
##OXINSTNDET : 1
##OXINSTELEMS: 26,13
##OXINSTLABEL: 26, 6.404, Fe
##OXINSTLABEL: 26, 7.058, Fe
##OXINSTLABEL: 26, 0.703, Fe
##OXINSTLABEL: 26, 0.615, Fe
##OXINSTLABEL: 13, 1.487, Al
#SPECTRUM    : Spectral Data Starts Here
-0.20000, 0.0
-0.13000, 0.0
-0.06000, 2.0
0.01000, 7363.0
0.08000, 268.0
0.15000, 106.0
0.22000, 114.0
0.29000, 259.0
0.36000, 102.0
0.43000, 123.0
0.50000, 239.0
0.57000, 205.0
0.64000, 280.0
0.71000, 331.0
0.78000, 409.0
0.85000, 483.0
0.92000, 570.0
0.99000, 670.0
1.06000, 793.0
1.13000, 965.0
1.20000, 1261.0
1.27000, 2589.0
1.34000, 1836.0
1.41000, 8788.0
1.48000, 188352.0
1.55000, 30724.0
1.62000, 692.0
1.69000, 194.0
1.76000, 383.0
1.83000, 132.0
1.90000, 166.0
1.97000, 141.0
2.04000, 167.0
2.11000, 176.0
2.18000, 166.0
2.25000, 188.0
2.32000, 200.0
2.39000, 203.0
2.46000, 219.0
2.53000, 233.0
2.60000, 224.0
2.67000, 221.0
2.74000, 267.0
2.81000, 254.0
2.88000, 319.0
2.95000, 834.0
3.02000, 712.0
3.09000, 280.0
3.16000, 235.0
3.23000, 266.0
3.30000, 248.0
3.37000, 255.0
3.44000, 240.0
3.51000, 242.0
3.58000, 249.0
3.65000, 253.0
3.72000, 256.0
3.79000, 281.0
3.86000, 252.0
3.93000, 258.0
4.00000, 239.0
4.07000, 270.0
4.14000, 264.0
4.21000, 265.0
4.28000, 236.0
4.35000, 251.0
4.42000, 214.0
4.49000, 243.0
4.56000, 248.0
4.63000, 246.0
4.70000, 230.0
4.77000, 236.0
4.84000, 247.0
4.91000, 210.0
4.98000, 236.0
5.05000, 216.0
5.12000, 213.0
5.19000, 206.0
5.26000, 211.0
5.33000, 202.0
5.40000, 221.0
5.47000, 209.0
5.54000, 210.0
5.61000, 199.0
5.68000, 182.0
5.75000, 199.0
5.82000, 259.0
5.89000, 345.0
5.96000, 273.0
6.03000, 193.0
6.10000, 191.0
6.17000, 174.0
6.24000, 185.0
6.31000, 182.0
6.38000, 210.0
6.45000, 218.0
6.52000, 181.0
6.59000, 173.0
6.66000, 146.0
6.73000, 168.0
6.80000, 159.0
6.87000, 151.0
6.94000, 144.0
7.01000, 153.0
7.08000, 151.0
7.15000, 137.0
7.22000, 127.0
7.29000, 141.0
7.36000, 154.0
7.43000, 142.0
7.50000, 146.0
7.57000, 154.0
7.64000, 136.0
7.71000, 130.0
7.78000, 131.0
7.85000, 124.0
7.92000, 129.0
7.99000, 142.0
8.06000, 140.0
8.13000, 139.0
8.20000, 117.0
8.27000, 127.0
8.34000, 115.0
8.41000, 101.0
8.48000, 132.0
8.55000, 122.0
8.62000, 123.0
8.69000, 116.0
8.76000, 121.0
8.83000, 107.0
8.90000, 139.0
8.97000, 105.0
9.04000, 109.0
9.11000, 106.0
9.18000, 103.0
9.25000, 103.0
9.32000, 102.0
9.39000, 105.0
9.46000, 101.0
9.53000, 99.0
9.60000, 108.0
9.67000, 79.0
9.74000, 93.0
9.81000, 92.0
9.88000, 100.0
9.95000, 90.0
10.02000, 96.0
10.09000, 94.0
10.16000, 87.0
10.23000, 92.0
10.30000, 100.0
10.37000, 90.0
10.44000, 82.0
10.51000, 80.0
10.58000, 71.0
10.65000, 74.0
10.72000, 82.0
10.79000, 74.0
10.86000, 83.0
10.93000, 65.0
11.00000, 80.0
11.07000, 66.0
11.14000, 77.0
11.21000, 62.0
11.28000, 73.0
11.35000, 59.0
11.42000, 55.0
11.49000, 65.0
11.56000, 60.0
11.63000, 71.0
11.70000, 67.0
11.77000, 67.0
11.84000, 61.0
11.91000, 69.0
11.98000, 61.0
12.05000, 59.0
12.12000, 57.0
12.19000, 53.0
12.26000, 59.0
12.33000, 54.0
12.40000, 52.0
12.47000, 54.0
12.54000, 52.0
12.61000, 56.0
12.68000, 58.0
12.75000, 52.0
12.82000, 54.0
12.89000, 47.0
12.96000, 44.0
13.03000, 54.0
13.10000, 50.0
13.17000, 45.0
13.24000, 41.0
13.31000, 46.0
13.38000, 42.0
13.45000, 51.0
13.52000, 52.0
13.59000, 33.0
13.66000, 38.0
13.73000, 39.0
13.80000, 35.0
13.87000, 41.0
13.94000, 42.0
14.01000, 39.0
14.08000, 33.0
14.15000, 44.0
14.22000, 37.0
14.29000, 37.0
14.36000, 34.0
14.43000, 37.0
14.50000, 30.0
14.57000, 30.0
14.64000, 42.0
14.71000, 33.0
14.78000, 21.0
14.85000, 35.0
14.92000, 25.0
14.99000, 28.0
15.06000, 34.0
15.13000, 27.0
15.20000, 27.0
15.27000, 27.0
15.34000, 25.0
15.41000, 30.0
15.48000, 33.0
15.55000, 23.0
15.62000, 18.0
15.69000, 26.0
15.76000, 27.0
15.83000, 19.0
15.90000, 22.0
15.97000, 24.0
16.04000, 22.0
16.11000, 21.0
16.18000, 23.0
16.25000, 20.0
16.32000, 24.0
16.39000, 20.0
16.46000, 20.0
16.53000, 17.0
16.60000, 18.0
16.67000, 18.0
16.74000, 24.0
16.81000, 15.0
16.88000, 17.0
16.95000, 18.0
17.02000, 17.0
17.09000, 16.0
17.16000, 14.0
17.23000, 16.0
17.30000, 19.0
17.37000, 15.0
17.44000, 18.0
17.51000, 13.0
17.58000, 15.0
17.65000, 15.0
17.72000, 19.0
17.79000, 18.0
17.86000, 15.0
17.93000, 8.0
18.00000, 12.0
18.07000, 19.0
18.14000, 8.0
18.21000, 13.0
18.28000, 15.0
18.35000, 16.0
18.42000, 15.0
18.49000, 14.0
18.56000, 12.0
18.63000, 10.0
18.70000, 11.0
18.77000, 9.0
18.84000, 10.0
18.91000, 10.0
18.98000, 12.0
19.05000, 10.0
19.12000, 10.0
19.19000, 10.0
19.26000, 5.0
19.33000, 8.0
19.40000, 10.0
19.47000, 8.0
19.54000, 9.0
19.61000, 7.0
19.68000, 11.0
19.75000, 7.0
19.82000, 16.0
19.89000, 8.0
19.96000, 7.0
20.03000, 5.0
20.10000, 5.0
20.17000, 10.0
20.24000, 9.0
20.27000, 5.0
#ENDOFDATA   :