File: data/2022-09-06_EDS-SEM-APREO/Cu_30kV.emsa
#FORMAT      : EMSA/MAS Spectral Data File
#VERSION     : 1.0
#TITLE       : Cu_30kV
#DATE        : 06-SEP-2022
#TIME        : 17:34
#OWNER       :
#NPOINTS     : 2048.0
#NCOLUMNS    : 1.0
#XUNITS      : keV
#YUNITS      : counts
#DATATYPE    : XY
#XPERCHAN    : 0.01
#OFFSET      : -0.2
#SIGNALTYPE  : EDS
#CHOFFSET    : 20.0
#LIVETIME    : 120.0
#REALTIME    : 141.932
#BEAMKV      : 30.0
#MAGCAM      : 1958.0
#XTILTSTGE   : 0.0
#AZIMANGLE   : 0.0
#ELEVANGLE   : 35.0
#XPOSITION mm: 1.6789
#YPOSITION mm: 7.2137
#ZPOSITION mm: 9.9088
##OXINSTPT   : 5
##OXINSTSTROB: 36.28
##OXINSTNDET : 1
##OXINSTELEMS: 8,6,29
##OXINSTLABEL: 8, 0.522, O
##OXINSTLABEL: 6, 0.277, C
##OXINSTLABEL: 29, 8.048, Cu
##OXINSTLABEL: 29, 8.905, Cu
##OXINSTLABEL: 29, 0.930, Cu
##OXINSTLABEL: 29, 0.832, Cu
##OXINSTLABEL: 29, 0.811, Cu
#SPECTRUM    : Spectral Data Starts Here
-0.20000, 0.0
-0.13000, 0.0
-0.06000, 2.0
0.01000, 7685.0
0.08000, 624.0
0.15000, 672.0
0.22000, 9041.0
0.29000, 59565.0
0.36000, 133.0
0.43000, 143.0
0.50000, 3178.0
0.57000, 766.0
0.64000, 147.0
0.71000, 197.0
0.78000, 289.0
0.85000, 336.0
0.92000, 357.0
0.99000, 400.0
1.06000, 454.0
1.13000, 492.0
1.20000, 542.0
1.27000, 566.0
1.34000, 626.0
1.41000, 647.0
1.48000, 691.0
1.55000, 694.0
1.62000, 719.0
1.69000, 934.0
1.76000, 1573.0
1.83000, 873.0
1.90000, 743.0
1.97000, 810.0
2.04000, 824.0
2.11000, 818.0
2.18000, 818.0
2.25000, 875.0
2.32000, 1117.0
2.39000, 860.0
2.46000, 810.0
2.53000, 805.0
2.60000, 803.0
2.67000, 782.0
2.74000, 773.0
2.81000, 745.0
2.88000, 737.0
2.95000, 743.0
3.02000, 722.0
3.09000, 723.0
3.16000, 709.0
3.23000, 689.0
3.30000, 642.0
3.37000, 645.0
3.44000, 679.0
3.51000, 592.0
3.58000, 656.0
3.65000, 579.0
3.72000, 580.0
3.79000, 608.0
3.86000, 569.0
3.93000, 563.0
4.00000, 529.0
4.07000, 554.0
4.14000, 542.0
4.21000, 510.0
4.28000, 505.0
4.35000, 489.0
4.42000, 474.0
4.49000, 494.0
4.56000, 468.0
4.63000, 454.0
4.70000, 434.0
4.77000, 461.0
4.84000, 456.0
4.91000, 450.0
4.98000, 417.0
5.05000, 376.0
5.12000, 387.0
5.19000, 389.0
5.26000, 387.0
5.33000, 382.0
5.40000, 340.0
5.47000, 354.0
5.54000, 351.0
5.61000, 358.0
5.68000, 375.0
5.75000, 347.0
5.82000, 316.0
5.89000, 324.0
5.96000, 314.0
6.03000, 314.0
6.10000, 304.0
6.17000, 309.0
6.24000, 281.0
6.31000, 294.0
6.38000, 267.0
6.45000, 285.0
6.52000, 269.0
6.59000, 252.0
6.66000, 275.0
6.73000, 266.0
6.80000, 251.0
6.87000, 259.0
6.94000, 243.0
7.01000, 239.0
7.08000, 226.0
7.15000, 256.0
7.22000, 223.0
7.29000, 233.0
7.36000, 214.0
7.43000, 218.0
7.50000, 213.0
7.57000, 217.0
7.64000, 198.0
7.71000, 196.0
7.78000, 207.0
7.85000, 231.0
7.92000, 435.0
7.99000, 1197.0
8.06000, 1442.0
8.13000, 626.0
8.20000, 236.0
8.27000, 214.0
8.34000, 186.0
8.41000, 167.0
8.48000, 174.0
8.55000, 164.0
8.62000, 162.0
8.69000, 178.0
8.76000, 177.0
8.83000, 264.0
8.90000, 323.0
8.97000, 254.0
9.04000, 178.0
9.11000, 156.0
9.18000, 132.0
9.25000, 119.0
9.32000, 146.0
9.39000, 153.0
9.46000, 140.0
9.53000, 140.0
9.60000, 114.0
9.67000, 127.0
9.74000, 139.0
9.81000, 114.0
9.88000, 123.0
9.95000, 118.0
10.02000, 115.0
10.09000, 110.0
10.16000, 131.0
10.23000, 124.0
10.30000, 127.0
10.37000, 103.0
10.44000, 113.0
10.51000, 112.0
10.58000, 106.0
10.65000, 104.0
10.72000, 116.0
10.79000, 100.0
10.86000, 109.0
10.93000, 99.0
11.00000, 88.0
11.07000, 97.0
11.14000, 91.0
11.21000, 83.0
11.28000, 85.0
11.35000, 79.0
11.42000, 83.0
11.49000, 89.0
11.56000, 72.0
11.63000, 85.0
11.70000, 82.0
11.77000, 78.0
11.84000, 71.0
11.91000, 75.0
11.98000, 71.0
12.05000, 74.0
12.12000, 78.0
12.19000, 74.0
12.26000, 60.0
12.33000, 62.0
12.40000, 66.0
12.47000, 65.0
12.54000, 62.0
12.61000, 60.0
12.68000, 56.0
12.75000, 59.0
12.82000, 69.0
12.89000, 48.0
12.96000, 57.0
13.03000, 61.0
13.10000, 56.0
13.17000, 60.0
13.24000, 57.0
13.31000, 58.0
13.38000, 54.0
13.45000, 53.0
13.52000, 46.0
13.59000, 46.0
13.66000, 38.0
13.73000, 42.0
13.80000, 51.0
13.87000, 56.0
13.94000, 46.0
14.01000, 43.0
14.08000, 40.0
14.15000, 42.0
14.22000, 38.0
14.29000, 45.0
14.36000, 36.0
14.43000, 43.0
14.50000, 33.0
14.57000, 36.0
14.64000, 38.0
14.71000, 36.0
14.78000, 36.0
14.85000, 33.0
14.92000, 30.0
14.99000, 34.0
15.06000, 39.0
15.13000, 35.0
15.20000, 30.0
15.27000, 28.0
15.34000, 26.0
15.41000, 29.0
15.48000, 31.0
15.55000, 30.0
15.62000, 32.0
15.69000, 27.0
15.76000, 25.0
15.83000, 27.0
15.90000, 26.0
15.97000, 24.0
16.04000, 31.0
16.11000, 23.0
16.18000, 21.0
16.25000, 18.0
16.32000, 19.0
16.39000, 19.0
16.46000, 25.0
16.53000, 19.0
16.60000, 21.0
16.67000, 21.0
16.74000, 17.0
16.81000, 17.0
16.88000, 14.0
16.95000, 25.0
17.02000, 22.0
17.09000, 11.0
17.16000, 18.0
17.23000, 22.0
17.30000, 18.0
17.37000, 22.0
17.44000, 16.0
17.51000, 10.0
17.58000, 13.0
17.65000, 11.0
17.72000, 14.0
17.79000, 17.0
17.86000, 16.0
17.93000, 10.0
18.00000, 15.0
18.07000, 10.0
18.14000, 11.0
18.21000, 7.0
18.28000, 15.0
18.35000, 9.0
18.42000, 11.0
18.49000, 13.0
18.56000, 10.0
18.63000, 11.0
18.70000, 11.0
18.77000, 11.0
18.84000, 8.0
18.91000, 10.0
18.98000, 6.0
19.05000, 5.0
19.12000, 14.0
19.19000, 10.0
19.26000, 10.0
19.33000, 9.0
19.40000, 8.0
19.47000, 6.0
19.54000, 8.0
19.61000, 9.0
19.68000, 8.0
19.75000, 8.0
19.82000, 6.0
19.89000, 6.0
19.96000, 7.0
20.03000, 5.0
20.10000, 6.0
20.17000, 9.0
20.24000, 6.0
20.27000, 6.0
#ENDOFDATA   :