File: data/2022-09-06_EDS-SEM-APREO/Mo_30kV.emsa
#FORMAT      : EMSA/MAS Spectral Data File
#VERSION     : 1.0
#TITLE       : Mo_30kV
#DATE        : 06-SEP-2022
#TIME        : 16:44
#OWNER       :
#NPOINTS     : 2048.0
#NCOLUMNS    : 1.0
#XUNITS      : keV
#YUNITS      : counts
#DATATYPE    : XY
#XPERCHAN    : 0.01
#OFFSET      : -0.2
#SIGNALTYPE  : EDS
#CHOFFSET    : 20.0
#LIVETIME    : 44.0
#REALTIME    : 68.4928
#BEAMKV      : 30.0
#MAGCAM      : 9788.0
#XTILTSTGE   : 0.0
#AZIMANGLE   : 0.0
#ELEVANGLE   : 35.0
#XPOSITION mm: -7.0542
#YPOSITION mm: -20.8305
#ZPOSITION mm: 9.9088
##OXINSTPT   : 5
##OXINSTSTROB: 36.90
##OXINSTNDET : 1
##OXINSTELEMS: 8,12,42
##OXINSTLABEL: 8, 0.522, O
##OXINSTLABEL: 12, 1.254, Mg
##OXINSTLABEL: 42, 17.480, Mo
##OXINSTLABEL: 42, 19.609, Mo
##OXINSTLABEL: 42, 19.965, Mo
##OXINSTLABEL: 42, 2.293, Mo
##OXINSTLABEL: 42, 2.395, Mo
##OXINSTLABEL: 42, 2.120, Mo
##OXINSTLABEL: 42, 2.831, Mo
##OXINSTLABEL: 42, 2.016, Mo
##OXINSTLABEL: 42, 0.193, Mo
#SPECTRUM    : Spectral Data Starts Here
-0.20000, 0.0
-0.13000, 0.0
-0.06000, 1.0
0.01000, 2588.0
0.08000, 202.0
0.15000, 1245.0
0.22000, 1450.0
0.29000, 517.0
0.36000, 129.0
0.43000, 152.0
0.50000, 299.0
0.57000, 956.0
0.64000, 531.0
0.71000, 348.0
0.78000, 308.0
0.85000, 324.0
0.92000, 363.0
0.99000, 418.0
1.06000, 453.0
1.13000, 515.0
1.20000, 585.0
1.27000, 629.0
1.34000, 669.0
1.41000, 746.0
1.48000, 759.0
1.55000, 758.0
1.62000, 814.0
1.69000, 827.0
1.76000, 975.0
1.83000, 862.0
1.90000, 856.0
1.97000, 1465.0
2.04000, 2314.0
2.11000, 1564.0
2.18000, 2100.0
2.25000, 19814.0
2.32000, 38566.0
2.39000, 20216.0
2.46000, 8877.0
2.53000, 2727.0
2.60000, 828.0
2.67000, 482.0
2.74000, 328.0
2.81000, 502.0
2.88000, 431.0
2.95000, 294.0
3.02000, 302.0
3.09000, 326.0
3.16000, 301.0
3.23000, 331.0
3.30000, 362.0
3.37000, 341.0
3.44000, 379.0
3.51000, 352.0
3.58000, 364.0
3.65000, 379.0
3.72000, 373.0
3.79000, 374.0
3.86000, 376.0
3.93000, 391.0
4.00000, 374.0
4.07000, 363.0
4.14000, 427.0
4.21000, 404.0
4.28000, 405.0
4.35000, 411.0
4.42000, 413.0
4.49000, 405.0
4.56000, 536.0
4.63000, 587.0
4.70000, 518.0
4.77000, 505.0
4.84000, 443.0
4.91000, 416.0
4.98000, 401.0
5.05000, 398.0
5.12000, 401.0
5.19000, 395.0
5.26000, 397.0
5.33000, 379.0
5.40000, 414.0
5.47000, 377.0
5.54000, 399.0
5.61000, 377.0
5.68000, 415.0
5.75000, 359.0
5.82000, 380.0
5.89000, 376.0
5.96000, 368.0
6.03000, 385.0
6.10000, 380.0
6.17000, 344.0
6.24000, 355.0
6.31000, 375.0
6.38000, 379.0
6.45000, 340.0
6.52000, 361.0
6.59000, 372.0
6.66000, 345.0
6.73000, 337.0
6.80000, 341.0
6.87000, 333.0
6.94000, 354.0
7.01000, 338.0
7.08000, 346.0
7.15000, 324.0
7.22000, 309.0
7.29000, 330.0
7.36000, 316.0
7.43000, 331.0
7.50000, 340.0
7.57000, 331.0
7.64000, 302.0
7.71000, 318.0
7.78000, 308.0
7.85000, 293.0
7.92000, 302.0
7.99000, 296.0
8.06000, 285.0
8.13000, 289.0
8.20000, 304.0
8.27000, 288.0
8.34000, 282.0
8.41000, 257.0
8.48000, 303.0
8.55000, 281.0
8.62000, 265.0
8.69000, 264.0
8.76000, 284.0
8.83000, 273.0
8.90000, 278.0
8.97000, 268.0
9.04000, 274.0
9.11000, 262.0
9.18000, 268.0
9.25000, 264.0
9.32000, 241.0
9.39000, 265.0
9.46000, 249.0
9.53000, 255.0
9.60000, 239.0
9.67000, 244.0
9.74000, 232.0
9.81000, 240.0
9.88000, 227.0
9.95000, 244.0
10.02000, 256.0
10.09000, 210.0
10.16000, 221.0
10.23000, 212.0
10.30000, 222.0
10.37000, 197.0
10.44000, 217.0
10.51000, 217.0
10.58000, 217.0
10.65000, 203.0
10.72000, 208.0
10.79000, 211.0
10.86000, 205.0
10.93000, 203.0
11.00000, 198.0
11.07000, 202.0
11.14000, 205.0
11.21000, 213.0
11.28000, 175.0
11.35000, 170.0
11.42000, 177.0
11.49000, 175.0
11.56000, 169.0
11.63000, 173.0
11.70000, 180.0
11.77000, 158.0
11.84000, 170.0
11.91000, 186.0
11.98000, 175.0
12.05000, 171.0
12.12000, 161.0
12.19000, 171.0
12.26000, 153.0
12.33000, 169.0
12.40000, 171.0
12.47000, 134.0
12.54000, 134.0
12.61000, 158.0
12.68000, 140.0
12.75000, 136.0
12.82000, 150.0
12.89000, 148.0
12.96000, 146.0
13.03000, 146.0
13.10000, 131.0
13.17000, 128.0
13.24000, 125.0
13.31000, 138.0
13.38000, 134.0
13.45000, 131.0
13.52000, 122.0
13.59000, 117.0
13.66000, 120.0
13.73000, 117.0
13.80000, 121.0
13.87000, 116.0
13.94000, 119.0
14.01000, 108.0
14.08000, 105.0
14.15000, 106.0
14.22000, 97.0
14.29000, 95.0
14.36000, 110.0
14.43000, 110.0
14.50000, 90.0
14.57000, 98.0
14.64000, 96.0
14.71000, 98.0
14.78000, 88.0
14.85000, 93.0
14.92000, 75.0
14.99000, 90.0
15.06000, 96.0
15.13000, 105.0
15.20000, 91.0
15.27000, 86.0
15.34000, 85.0
15.41000, 92.0
15.48000, 85.0
15.55000, 75.0
15.62000, 82.0
15.69000, 78.0
15.76000, 72.0
15.83000, 68.0
15.90000, 73.0
15.97000, 77.0
16.04000, 72.0
16.11000, 77.0
16.18000, 67.0
16.25000, 65.0
16.32000, 58.0
16.39000, 61.0
16.46000, 64.0
16.53000, 51.0
16.60000, 77.0
16.67000, 65.0
16.74000, 67.0
16.81000, 51.0
16.88000, 59.0
16.95000, 74.0
17.02000, 54.0
17.09000, 70.0
17.16000, 98.0
17.23000, 224.0
17.30000, 465.0
17.37000, 745.0
17.44000, 848.0
17.51000, 629.0
17.58000, 282.0
17.65000, 110.0
17.72000, 63.0
17.79000, 47.0
17.86000, 48.0
17.93000, 52.0
18.00000, 50.0
18.07000, 39.0
18.14000, 49.0
18.21000, 44.0
18.28000, 46.0
18.35000, 45.0
18.42000, 42.0
18.49000, 35.0
18.56000, 31.0
18.63000, 33.0
18.70000, 33.0
18.77000, 37.0
18.84000, 38.0
18.91000, 30.0
18.98000, 41.0
19.05000, 40.0
19.12000, 42.0
19.19000, 35.0
19.26000, 34.0
19.33000, 42.0
19.40000, 52.0
19.47000, 106.0
19.54000, 131.0
19.61000, 144.0
19.68000, 110.0
19.75000, 64.0
19.82000, 43.0
19.89000, 44.0
19.96000, 52.0
20.03000, 44.0
20.10000, 27.0
20.17000, 25.0
20.24000, 24.0
20.27000, 28.0
#ENDOFDATA   :