File: data/2022-09-06_EDS-SEM-APREO/NW_10kV.emsa
#FORMAT      : EMSA/MAS Spectral Data File
#VERSION     : 1.0
#TITLE       : NW_10kV
#DATE        : 06-SEP-2022
#TIME        : 16:05
#OWNER       :
#NPOINTS     : 2048.0
#NCOLUMNS    : 1.0
#XUNITS      : keV
#YUNITS      : counts
#DATATYPE    : XY
#XPERCHAN    : 0.01
#OFFSET      : -0.2
#SIGNALTYPE  : EDS
#CHOFFSET    : 20.0
#LIVETIME    : 120.0
#REALTIME    : 147.437
#BEAMKV      : 10.0
#MAGCAM      : 68514.0
#XTILTSTGE   : 0.0
#AZIMANGLE   : 0.0
#ELEVANGLE   : 35.0
#XPOSITION mm: -4.8510
#YPOSITION mm: -16.6868
#ZPOSITION mm: 9.9088
##OXINSTPT   : 5
##OXINSTSTROB: 36.25
##OXINSTNDET : 1
##OXINSTELEMS: 25,50,8,12
##OXINSTLABEL: 25, 5.899, Mn
##OXINSTLABEL: 25, 6.490, Mn
##OXINSTLABEL: 25, 0.636, Mn
##OXINSTLABEL: 25, 0.556, Mn
##OXINSTLABEL: 50, 3.444, Sn
##OXINSTLABEL: 50, 3.666, Sn
##OXINSTLABEL: 50, 3.905, Sn
##OXINSTLABEL: 50, 3.272, Sn
##OXINSTLABEL: 50, 4.131, Sn
##OXINSTLABEL: 50, 4.377, Sn
##OXINSTLABEL: 50, 3.045, Sn
##OXINSTLABEL: 50, 0.397, Sn
##OXINSTLABEL: 8, 0.522, O
##OXINSTLABEL: 12, 1.254, Mg
#SPECTRUM    : Spectral Data Starts Here
-0.20000, 0.0
-0.13000, 0.0
-0.06000, 1.0
0.01000, 7420.0
0.08000, 560.0
0.15000, 1266.0
0.22000, 3092.0
0.29000, 10028.0
0.36000, 1594.0
0.43000, 2043.0
0.50000, 4465.0
0.57000, 2169.0
0.64000, 2035.0
0.71000, 2083.0
0.78000, 2186.0
0.85000, 3268.0
0.92000, 5979.0
0.99000, 4733.0
1.06000, 15744.0
1.13000, 39992.0
1.20000, 3969.0
1.27000, 32687.0
1.34000, 18181.0
1.41000, 2081.0
1.48000, 1225.0
1.55000, 1184.0
1.62000, 1052.0
1.69000, 1146.0
1.76000, 1259.0
1.83000, 1002.0
1.90000, 891.0
1.97000, 929.0
2.04000, 1035.0
2.11000, 835.0
2.18000, 870.0
2.25000, 1023.0
2.32000, 1167.0
2.39000, 1024.0
2.46000, 819.0
2.53000, 747.0
2.60000, 714.0
2.67000, 683.0
2.74000, 667.0
2.81000, 632.0
2.88000, 592.0
2.95000, 594.0
3.02000, 595.0
3.09000, 561.0
3.16000, 558.0
3.23000, 537.0
3.30000, 547.0
3.37000, 481.0
3.44000, 519.0
3.51000, 510.0
3.58000, 903.0
3.65000, 871.0
3.72000, 492.0
3.79000, 543.0
3.86000, 667.0
3.93000, 527.0
4.00000, 441.0
4.07000, 453.0
4.14000, 446.0
4.21000, 383.0
4.28000, 398.0
4.35000, 402.0
4.42000, 395.0
4.49000, 368.0
4.56000, 369.0
4.63000, 337.0
4.70000, 342.0
4.77000, 335.0
4.84000, 313.0
4.91000, 334.0
4.98000, 317.0
5.05000, 313.0
5.12000, 293.0
5.19000, 312.0
5.26000, 290.0
5.33000, 259.0
5.40000, 274.0
5.47000, 272.0
5.54000, 251.0
5.61000, 276.0
5.68000, 267.0
5.75000, 270.0
5.82000, 261.0
5.89000, 247.0
5.96000, 260.0
6.03000, 249.0
6.10000, 253.0
6.17000, 211.0
6.24000, 221.0
6.31000, 235.0
6.38000, 223.0
6.45000, 215.0
6.52000, 217.0
6.59000, 214.0
6.66000, 208.0
6.73000, 202.0
6.80000, 203.0
6.87000, 208.0
6.94000, 186.0
7.01000, 206.0
7.08000, 194.0
7.15000, 185.0
7.22000, 173.0
7.29000, 177.0
7.36000, 171.0
7.43000, 181.0
7.50000, 194.0
7.57000, 174.0
7.64000, 182.0
7.71000, 187.0
7.78000, 178.0
7.85000, 148.0
7.92000, 151.0
7.99000, 183.0
8.06000, 189.0
8.13000, 173.0
8.20000, 163.0
8.27000, 153.0
8.34000, 136.0
8.41000, 143.0
8.48000, 130.0
8.55000, 141.0
8.62000, 134.0
8.69000, 129.0
8.76000, 134.0
8.83000, 146.0
8.90000, 140.0
8.97000, 124.0
9.04000, 105.0
9.11000, 104.0
9.18000, 104.0
9.25000, 106.0
9.32000, 91.0
9.39000, 92.0
9.46000, 90.0
9.53000, 81.0
9.60000, 76.0
9.67000, 78.0
9.74000, 55.0
9.81000, 48.0
9.88000, 39.0
9.95000, 25.0
10.02000, 8.0
10.09000, 3.0
10.16000, 2.0
10.23000, 1.0
10.30000, 1.0
10.37000, 2.0
10.44000, 1.0
10.51000, 1.0
10.58000, 0.0
10.65000, 1.0
10.72000, 0.0
10.79000, 1.0
10.86000, 2.0
10.93000, 0.0
11.00000, 1.0
11.07000, 0.0
11.14000, 0.0
11.21000, 1.0
11.28000, 1.0
11.35000, 0.0
11.42000, 0.0
11.49000, 0.0
11.56000, 0.0
11.63000, 1.0
11.70000, 0.0
11.77000, 0.0
11.84000, 0.0
11.91000, 0.0
11.98000, 1.0
12.05000, 0.0
12.12000, 0.0
12.19000, 0.0
12.26000, 0.0
12.33000, 1.0
12.40000, 1.0
12.47000, 0.0
12.54000, 0.0
12.61000, 0.0
12.68000, 0.0
12.75000, 0.0
12.82000, 0.0
12.89000, 0.0
12.96000, 0.0
13.03000, 0.0
13.10000, 0.0
13.17000, 0.0
13.24000, 0.0
13.31000, 0.0
13.38000, 0.0
13.45000, 0.0
13.52000, 0.0
13.59000, 0.0
13.66000, 0.0
13.73000, 0.0
13.80000, 0.0
13.87000, 0.0
13.94000, 1.0
14.01000, 0.0
14.08000, 0.0
14.15000, 0.0
14.22000, 0.0
14.29000, 0.0
14.36000, 0.0
14.43000, 0.0
14.50000, 0.0
14.57000, 1.0
14.64000, 0.0
14.71000, 0.0
14.78000, 0.0
14.85000, 0.0
14.92000, 2.0
14.99000, 0.0
15.06000, 0.0
15.13000, 0.0
15.20000, 0.0
15.27000, 0.0
15.34000, 0.0
15.41000, 0.0
15.48000, 0.0
15.55000, 1.0
15.62000, 0.0
15.69000, 0.0
15.76000, 0.0
15.83000, 0.0
15.90000, 0.0
15.97000, 0.0
16.04000, 0.0
16.11000, 0.0
16.18000, 0.0
16.25000, 1.0
16.32000, 0.0
16.39000, 0.0
16.46000, 0.0
16.53000, 0.0
16.60000, 0.0
16.67000, 0.0
16.74000, 0.0
16.81000, 0.0
16.88000, 0.0
16.95000, 0.0
17.02000, 0.0
17.09000, 0.0
17.16000, 0.0
17.23000, 0.0
17.30000, 0.0
17.37000, 1.0
17.44000, 0.0
17.51000, 0.0
17.58000, 0.0
17.65000, 0.0
17.72000, 0.0
17.79000, 0.0
17.86000, 0.0
17.93000, 0.0
18.00000, 0.0
18.07000, 0.0
18.14000, 0.0
18.21000, 0.0
18.28000, 0.0
18.35000, 0.0
18.42000, 0.0
18.49000, 0.0
18.56000, 0.0
18.63000, 0.0
18.70000, 0.0
18.77000, 0.0
18.84000, 0.0
18.91000, 0.0
18.98000, 0.0
19.05000, 0.0
19.12000, 0.0
19.19000, 0.0
19.26000, 0.0
19.33000, 0.0
19.40000, 0.0
19.47000, 0.0
19.54000, 0.0
19.61000, 0.0
19.68000, 0.0
19.75000, 0.0
19.82000, 0.0
19.89000, 0.0
19.96000, 0.0
20.03000, 0.0
20.10000, 0.0
20.17000, 0.0
20.24000, 0.0
20.27000, 0.0
#ENDOFDATA   :