File: data/2022-09-06_EDS-SEM-APREO/NW_30kV.emsa
#FORMAT      : EMSA/MAS Spectral Data File
#VERSION     : 1.0
#TITLE       : NW_30kV
#DATE        : 06-SEP-2022
#TIME        : 16:17
#OWNER       :
#NPOINTS     : 2048.0
#NCOLUMNS    : 1.0
#XUNITS      : keV
#YUNITS      : counts
#DATATYPE    : XY
#XPERCHAN    : 0.01
#OFFSET      : -0.2
#SIGNALTYPE  : EDS
#CHOFFSET    : 20.0
#LIVETIME    : 120.0
#REALTIME    : 137.831
#BEAMKV      : 30.0
#MAGCAM      : 97876.0
#XTILTSTGE   : 0.0
#AZIMANGLE   : 0.0
#ELEVANGLE   : 35.0
#XPOSITION mm: -4.8487
#YPOSITION mm: -16.6872
#ZPOSITION mm: 9.9088
##OXINSTPT   : 5
##OXINSTSTROB: 36.56
##OXINSTNDET : 1
##OXINSTELEMS: 8,33,31,6
##OXINSTLABEL: 8, 0.522, O
##OXINSTLABEL: 33, 10.544, As
##OXINSTLABEL: 33, 11.726, As
##OXINSTLABEL: 33, 1.282, As
##OXINSTLABEL: 33, 1.155, As
##OXINSTLABEL: 33, 1.120, As
##OXINSTLABEL: 31, 9.252, Ga
##OXINSTLABEL: 31, 10.264, Ga
##OXINSTLABEL: 31, 1.098, Ga
##OXINSTLABEL: 31, 0.984, Ga
##OXINSTLABEL: 31, 0.957, Ga
##OXINSTLABEL: 6, 0.277, C
#SPECTRUM    : Spectral Data Starts Here
-0.20000, 0.0
-0.13000, 0.0
-0.06000, 3.0
0.01000, 7488.0
0.08000, 289.0
0.15000, 513.0
0.22000, 818.0
0.29000, 1143.0
0.36000, 518.0
0.43000, 779.0
0.50000, 1846.0
0.57000, 822.0
0.64000, 771.0
0.71000, 888.0
0.78000, 1017.0
0.85000, 1496.0
0.92000, 2650.0
0.99000, 2244.0
1.06000, 7760.0
1.13000, 20461.0
1.20000, 1933.0
1.27000, 16743.0
1.34000, 9180.0
1.41000, 942.0
1.48000, 484.0
1.55000, 489.0
1.62000, 464.0
1.69000, 490.0
1.76000, 561.0
1.83000, 444.0
1.90000, 387.0
1.97000, 439.0
2.04000, 500.0
2.11000, 345.0
2.18000, 355.0
2.25000, 525.0
2.32000, 693.0
2.39000, 504.0
2.46000, 400.0
2.53000, 321.0
2.60000, 321.0
2.67000, 296.0
2.74000, 263.0
2.81000, 273.0
2.88000, 278.0
2.95000, 251.0
3.02000, 254.0
3.09000, 243.0
3.16000, 256.0
3.23000, 268.0
3.30000, 241.0
3.37000, 237.0
3.44000, 231.0
3.51000, 278.0
3.58000, 589.0
3.65000, 541.0
3.72000, 222.0
3.79000, 266.0
3.86000, 427.0
3.93000, 288.0
4.00000, 225.0
4.07000, 222.0
4.14000, 228.0
4.21000, 180.0
4.28000, 183.0
4.35000, 195.0
4.42000, 182.0
4.49000, 169.0
4.56000, 169.0
4.63000, 180.0
4.70000, 163.0
4.77000, 151.0
4.84000, 152.0
4.91000, 159.0
4.98000, 152.0
5.05000, 135.0
5.12000, 149.0
5.19000, 163.0
5.26000, 145.0
5.33000, 156.0
5.40000, 155.0
5.47000, 137.0
5.54000, 140.0
5.61000, 139.0
5.68000, 134.0
5.75000, 143.0
5.82000, 141.0
5.89000, 133.0
5.96000, 118.0
6.03000, 126.0
6.10000, 120.0
6.17000, 123.0
6.24000, 138.0
6.31000, 137.0
6.38000, 139.0
6.45000, 128.0
6.52000, 127.0
6.59000, 110.0
6.66000, 117.0
6.73000, 127.0
6.80000, 112.0
6.87000, 122.0
6.94000, 122.0
7.01000, 138.0
7.08000, 108.0
7.15000, 129.0
7.22000, 107.0
7.29000, 133.0
7.36000, 213.0
7.43000, 549.0
7.50000, 620.0
7.57000, 253.0
7.64000, 130.0
7.71000, 121.0
7.78000, 113.0
7.85000, 154.0
7.92000, 616.0
7.99000, 2316.0
8.06000, 3126.0
8.13000, 1183.0
8.20000, 262.0
8.27000, 202.0
8.34000, 135.0
8.41000, 97.0
8.48000, 109.0
8.55000, 102.0
8.62000, 105.0
8.69000, 114.0
8.76000, 150.0
8.83000, 347.0
8.90000, 544.0
8.97000, 362.0
9.04000, 186.0
9.11000, 747.0
9.18000, 2875.0
9.25000, 4089.0
9.32000, 1952.0
9.39000, 365.0
9.46000, 99.0
9.53000, 69.0
9.60000, 77.0
9.67000, 68.0
9.74000, 64.0
9.81000, 74.0
9.88000, 70.0
9.95000, 83.0
10.02000, 78.0
10.09000, 109.0
10.16000, 286.0
10.23000, 581.0
10.30000, 541.0
10.37000, 505.0
10.44000, 1504.0
10.51000, 2842.0
10.58000, 2181.0
10.65000, 645.0
10.72000, 133.0
10.79000, 72.0
10.86000, 64.0
10.93000, 50.0
11.00000, 62.0
11.07000, 61.0
11.14000, 54.0
11.21000, 52.0
11.28000, 63.0
11.35000, 54.0
11.42000, 61.0
11.49000, 55.0
11.56000, 112.0
11.63000, 276.0
11.70000, 445.0
11.77000, 378.0
11.84000, 154.0
11.91000, 74.0
11.98000, 59.0
12.05000, 54.0
12.12000, 47.0
12.19000, 48.0
12.26000, 58.0
12.33000, 45.0
12.40000, 45.0
12.47000, 51.0
12.54000, 51.0
12.61000, 49.0
12.68000, 36.0
12.75000, 40.0
12.82000, 48.0
12.89000, 50.0
12.96000, 53.0
13.03000, 36.0
13.10000, 46.0
13.17000, 42.0
13.24000, 41.0
13.31000, 44.0
13.38000, 32.0
13.45000, 37.0
13.52000, 45.0
13.59000, 37.0
13.66000, 36.0
13.73000, 46.0
13.80000, 42.0
13.87000, 39.0
13.94000, 46.0
14.01000, 40.0
14.08000, 41.0
14.15000, 40.0
14.22000, 35.0
14.29000, 39.0
14.36000, 35.0
14.43000, 37.0
14.50000, 42.0
14.57000, 35.0
14.64000, 34.0
14.71000, 38.0
14.78000, 40.0
14.85000, 32.0
14.92000, 30.0
14.99000, 34.0
15.06000, 27.0
15.13000, 30.0
15.20000, 22.0
15.27000, 30.0
15.34000, 40.0
15.41000, 34.0
15.48000, 35.0
15.55000, 29.0
15.62000, 38.0
15.69000, 31.0
15.76000, 31.0
15.83000, 25.0
15.90000, 28.0
15.97000, 26.0
16.04000, 32.0
16.11000, 22.0
16.18000, 29.0
16.25000, 28.0
16.32000, 32.0
16.39000, 23.0
16.46000, 28.0
16.53000, 26.0
16.60000, 29.0
16.67000, 24.0
16.74000, 24.0
16.81000, 21.0
16.88000, 20.0
16.95000, 24.0
17.02000, 20.0
17.09000, 20.0
17.16000, 32.0
17.23000, 33.0
17.30000, 32.0
17.37000, 41.0
17.44000, 40.0
17.51000, 33.0
17.58000, 23.0
17.65000, 20.0
17.72000, 26.0
17.79000, 16.0
17.86000, 25.0
17.93000, 21.0
18.00000, 19.0
18.07000, 21.0
18.14000, 26.0
18.21000, 20.0
18.28000, 15.0
18.35000, 15.0
18.42000, 20.0
18.49000, 17.0
18.56000, 15.0
18.63000, 16.0
18.70000, 23.0
18.77000, 14.0
18.84000, 15.0
18.91000, 20.0
18.98000, 16.0
19.05000, 23.0
19.12000, 16.0
19.19000, 13.0
19.26000, 19.0
19.33000, 14.0
19.40000, 12.0
19.47000, 16.0
19.54000, 14.0
19.61000, 20.0
19.68000, 26.0
19.75000, 18.0
19.82000, 16.0
19.89000, 15.0
19.96000, 15.0
20.03000, 12.0
20.10000, 11.0
20.17000, 11.0
20.24000, 15.0
20.27000, 14.0
#ENDOFDATA   :