File: data/2022-09-06_EDS-SEM-APREO/Si_10kV.emsa
#FORMAT      : EMSA/MAS Spectral Data File
#VERSION     : 1.0
#TITLE       : Si_10kV
#DATE        : 06-SEP-2022
#TIME        : 17:12
#OWNER       :
#NPOINTS     : 2048.0
#NCOLUMNS    : 1.0
#XUNITS      : keV
#YUNITS      : counts
#DATATYPE    : XY
#XPERCHAN    : 0.01
#OFFSET      : -0.2
#SIGNALTYPE  : EDS
#CHOFFSET    : 20.0
#LIVETIME    : 45.0
#REALTIME    : 133.729
#BEAMKV      : 10.0
#MAGCAM      : 1958.0
#XTILTSTGE   : 0.0
#AZIMANGLE   : 0.0
#ELEVANGLE   : 35.0
#XPOSITION mm: 10.6075
#YPOSITION mm: -10.1979
#ZPOSITION mm: 9.9088
##OXINSTPT   : 5
##OXINSTSTROB: 36.78
##OXINSTNDET : 1
##OXINSTELEMS: 25,50,8,12
##OXINSTLABEL: 25, 5.899, Mn
##OXINSTLABEL: 25, 6.490, Mn
##OXINSTLABEL: 25, 0.636, Mn
##OXINSTLABEL: 25, 0.556, Mn
##OXINSTLABEL: 50, 3.444, Sn
##OXINSTLABEL: 50, 3.666, Sn
##OXINSTLABEL: 50, 3.905, Sn
##OXINSTLABEL: 50, 3.272, Sn
##OXINSTLABEL: 50, 4.131, Sn
##OXINSTLABEL: 50, 4.377, Sn
##OXINSTLABEL: 50, 3.045, Sn
##OXINSTLABEL: 50, 0.397, Sn
##OXINSTLABEL: 8, 0.522, O
##OXINSTLABEL: 12, 1.254, Mg
#SPECTRUM    : Spectral Data Starts Here
-0.20000, 0.0
-0.13000, 0.0
-0.06000, 0.0
0.01000, 2097.0
0.08000, 6099.0
0.15000, 380.0
0.22000, 539.0
0.29000, 1048.0
0.36000, 595.0
0.43000, 1066.0
0.50000, 1837.0
0.57000, 1693.0
0.64000, 2162.0
0.71000, 2457.0
0.78000, 2639.0
0.85000, 2814.0
0.92000, 2930.0
0.99000, 2802.0
1.06000, 2830.0
1.13000, 2793.0
1.20000, 2726.0
1.27000, 2639.0
1.34000, 2541.0
1.41000, 2635.0
1.48000, 2845.0
1.55000, 3130.0
1.62000, 3405.0
1.69000, 77645.0
1.76000, 243783.0
1.83000, 21956.0
1.90000, 3452.0
1.97000, 1090.0
2.04000, 1052.0
2.11000, 915.0
2.18000, 981.0
2.25000, 1000.0
2.32000, 987.0
2.39000, 1014.0
2.46000, 1025.0
2.53000, 1028.0
2.60000, 1024.0
2.67000, 963.0
2.74000, 961.0
2.81000, 920.0
2.88000, 883.0
2.95000, 912.0
3.02000, 858.0
3.09000, 856.0
3.16000, 844.0
3.23000, 841.0
3.30000, 823.0
3.37000, 912.0
3.44000, 3514.0
3.51000, 4862.0
3.58000, 1486.0
3.65000, 761.0
3.72000, 602.0
3.79000, 598.0
3.86000, 564.0
3.93000, 585.0
4.00000, 547.0
4.07000, 522.0
4.14000, 504.0
4.21000, 488.0
4.28000, 477.0
4.35000, 449.0
4.42000, 429.0
4.49000, 440.0
4.56000, 423.0
4.63000, 403.0
4.70000, 435.0
4.77000, 405.0
4.84000, 389.0
4.91000, 346.0
4.98000, 386.0
5.05000, 373.0
5.12000, 382.0
5.19000, 384.0
5.26000, 404.0
5.33000, 328.0
5.40000, 316.0
5.47000, 298.0
5.54000, 271.0
5.61000, 274.0
5.68000, 288.0
5.75000, 291.0
5.82000, 258.0
5.89000, 259.0
5.96000, 233.0
6.03000, 221.0
6.10000, 239.0
6.17000, 222.0
6.24000, 246.0
6.31000, 219.0
6.38000, 194.0
6.45000, 202.0
6.52000, 184.0
6.59000, 181.0
6.66000, 162.0
6.73000, 181.0
6.80000, 189.0
6.87000, 158.0
6.94000, 173.0
7.01000, 173.0
7.08000, 125.0
7.15000, 135.0
7.22000, 143.0
7.29000, 136.0
7.36000, 128.0
7.43000, 115.0
7.50000, 115.0
7.57000, 122.0
7.64000, 98.0
7.71000, 100.0
7.78000, 94.0
7.85000, 92.0
7.92000, 86.0
7.99000, 84.0
8.06000, 84.0
8.13000, 85.0
8.20000, 81.0
8.27000, 77.0
8.34000, 72.0
8.41000, 67.0
8.48000, 64.0
8.55000, 56.0
8.62000, 54.0
8.69000, 54.0
8.76000, 52.0
8.83000, 50.0
8.90000, 59.0
8.97000, 39.0
9.04000, 37.0
9.11000, 40.0
9.18000, 30.0
9.25000, 32.0
9.32000, 40.0
9.39000, 22.0
9.46000, 22.0
9.53000, 24.0
9.60000, 20.0
9.67000, 16.0
9.74000, 14.0
9.81000, 18.0
9.88000, 11.0
9.95000, 5.0
10.02000, 7.0
10.09000, 6.0
10.16000, 6.0
10.23000, 4.0
10.30000, 3.0
10.37000, 5.0
10.44000, 4.0
10.51000, 4.0
10.58000, 4.0
10.65000, 2.0
10.72000, 2.0
10.79000, 4.0
10.86000, 3.0
10.93000, 4.0
11.00000, 1.0
11.07000, 2.0
11.14000, 1.0
11.21000, 1.0
11.28000, 2.0
11.35000, 1.0
11.42000, 2.0
11.49000, 0.0
11.56000, 1.0
11.63000, 1.0
11.70000, 1.0
11.77000, 0.0
11.84000, 0.0
11.91000, 1.0
11.98000, 0.0
12.05000, 1.0
12.12000, 1.0
12.19000, 0.0
12.26000, 0.0
12.33000, 0.0
12.40000, 2.0
12.47000, 1.0
12.54000, 0.0
12.61000, 1.0
12.68000, 1.0
12.75000, 0.0
12.82000, 1.0
12.89000, 0.0
12.96000, 0.0
13.03000, 0.0
13.10000, 1.0
13.17000, 0.0
13.24000, 0.0
13.31000, 0.0
13.38000, 0.0
13.45000, 0.0
13.52000, 0.0
13.59000, 1.0
13.66000, 0.0
13.73000, 0.0
13.80000, 0.0
13.87000, 0.0
13.94000, 0.0
14.01000, 0.0
14.08000, 0.0
14.15000, 0.0
14.22000, 0.0
14.29000, 0.0
14.36000, 0.0
14.43000, 0.0
14.50000, 0.0
14.57000, 0.0
14.64000, 0.0
14.71000, 0.0
14.78000, 0.0
14.85000, 0.0
14.92000, 0.0
14.99000, 1.0
15.06000, 0.0
15.13000, 0.0
15.20000, 0.0
15.27000, 0.0
15.34000, 0.0
15.41000, 0.0
15.48000, 0.0
15.55000, 0.0
15.62000, 0.0
15.69000, 0.0
15.76000, 0.0
15.83000, 0.0
15.90000, 0.0
15.97000, 0.0
16.04000, 0.0
16.11000, 0.0
16.18000, 0.0
16.25000, 0.0
16.32000, 0.0
16.39000, 0.0
16.46000, 0.0
16.53000, 0.0
16.60000, 0.0
16.67000, 0.0
16.74000, 0.0
16.81000, 0.0
16.88000, 0.0
16.95000, 0.0
17.02000, 0.0
17.09000, 0.0
17.16000, 0.0
17.23000, 0.0
17.30000, 0.0
17.37000, 0.0
17.44000, 0.0
17.51000, 0.0
17.58000, 0.0
17.65000, 0.0
17.72000, 0.0
17.79000, 0.0
17.86000, 0.0
17.93000, 0.0
18.00000, 0.0
18.07000, 0.0
18.14000, 0.0
18.21000, 0.0
18.28000, 0.0
18.35000, 0.0
18.42000, 0.0
18.49000, 0.0
18.56000, 0.0
18.63000, 0.0
18.70000, 0.0
18.77000, 0.0
18.84000, 0.0
18.91000, 0.0
18.98000, 0.0
19.05000, 0.0
19.12000, 0.0
19.19000, 0.0
19.26000, 0.0
19.33000, 0.0
19.40000, 0.0
19.47000, 0.0
19.54000, 0.0
19.61000, 0.0
19.68000, 0.0
19.75000, 0.0
19.82000, 0.0
19.89000, 0.0
19.96000, 0.0
20.03000, 0.0
20.10000, 0.0
20.17000, 0.0
20.24000, 0.0
20.27000, 0.0
#ENDOFDATA   :