File: data/2022-09-06_EDS-SEM-APREO/Si_30kV.emsa
#FORMAT      : EMSA/MAS Spectral Data File
#VERSION     : 1.0
#TITLE       : Si_30kV
#DATE        : 06-SEP-2022
#TIME        : 17:20
#OWNER       :
#NPOINTS     : 2048.0
#NCOLUMNS    : 1.0
#XUNITS      : keV
#YUNITS      : counts
#DATATYPE    : XY
#XPERCHAN    : 0.01
#OFFSET      : -0.2
#SIGNALTYPE  : EDS
#CHOFFSET    : 20.0
#LIVETIME    : 86.8343
#REALTIME    : 147.33
#BEAMKV      : 30.0
#MAGCAM      : 1958.0
#XTILTSTGE   : 0.0
#AZIMANGLE   : 0.0
#ELEVANGLE   : 35.0
#XPOSITION mm: 10.6075
#YPOSITION mm: -10.1979
#ZPOSITION mm: 9.9088
##OXINSTPT   : 5
##OXINSTSTROB: 36.32
##OXINSTNDET : 1
##OXINSTELEMS: 14
##OXINSTLABEL: 14, 1.740, Si
#SPECTRUM    : Spectral Data Starts Here
-0.20000, 0.0
-0.13000, 0.0
-0.06000, 0.0
0.01000, 5030.0
0.08000, 888.0
0.15000, 150.0
0.22000, 158.0
0.29000, 436.0
0.36000, 136.0
0.43000, 145.0
0.50000, 255.0
0.57000, 247.0
0.64000, 298.0
0.71000, 380.0
0.78000, 521.0
0.85000, 611.0
0.92000, 743.0
0.99000, 893.0
1.06000, 973.0
1.13000, 1001.0
1.20000, 1112.0
1.27000, 1170.0
1.34000, 1324.0
1.41000, 1508.0
1.48000, 1860.0
1.55000, 2282.0
1.62000, 2693.0
1.69000, 77951.0
1.76000, 248175.0
1.83000, 19198.0
1.90000, 1968.0
1.97000, 215.0
2.04000, 215.0
2.11000, 221.0
2.18000, 226.0
2.25000, 251.0
2.32000, 254.0
2.39000, 292.0
2.46000, 295.0
2.53000, 332.0
2.60000, 355.0
2.67000, 334.0
2.74000, 363.0
2.81000, 348.0
2.88000, 351.0
2.95000, 367.0
3.02000, 369.0
3.09000, 402.0
3.16000, 414.0
3.23000, 394.0
3.30000, 426.0
3.37000, 480.0
3.44000, 1829.0
3.51000, 2541.0
3.58000, 823.0
3.65000, 433.0
3.72000, 385.0
3.79000, 363.0
3.86000, 416.0
3.93000, 376.0
4.00000, 368.0
4.07000, 389.0
4.14000, 377.0
4.21000, 370.0
4.28000, 398.0
4.35000, 363.0
4.42000, 345.0
4.49000, 365.0
4.56000, 361.0
4.63000, 352.0
4.70000, 368.0
4.77000, 370.0
4.84000, 356.0
4.91000, 337.0
4.98000, 327.0
5.05000, 338.0
5.12000, 327.0
5.19000, 375.0
5.26000, 331.0
5.33000, 320.0
5.40000, 322.0
5.47000, 330.0
5.54000, 319.0
5.61000, 301.0
5.68000, 309.0
5.75000, 343.0
5.82000, 315.0
5.89000, 308.0
5.96000, 295.0
6.03000, 305.0
6.10000, 286.0
6.17000, 286.0
6.24000, 281.0
6.31000, 295.0
6.38000, 281.0
6.45000, 290.0
6.52000, 257.0
6.59000, 260.0
6.66000, 258.0
6.73000, 243.0
6.80000, 260.0
6.87000, 253.0
6.94000, 247.0
7.01000, 279.0
7.08000, 252.0
7.15000, 238.0
7.22000, 227.0
7.29000, 234.0
7.36000, 232.0
7.43000, 236.0
7.50000, 248.0
7.57000, 227.0
7.64000, 226.0
7.71000, 221.0
7.78000, 213.0
7.85000, 207.0
7.92000, 210.0
7.99000, 222.0
8.06000, 205.0
8.13000, 202.0
8.20000, 197.0
8.27000, 202.0
8.34000, 214.0
8.41000, 179.0
8.48000, 168.0
8.55000, 191.0
8.62000, 193.0
8.69000, 176.0
8.76000, 177.0
8.83000, 172.0
8.90000, 184.0
8.97000, 182.0
9.04000, 176.0
9.11000, 157.0
9.18000, 164.0
9.25000, 152.0
9.32000, 163.0
9.39000, 169.0
9.46000, 161.0
9.53000, 170.0
9.60000, 156.0
9.67000, 178.0
9.74000, 153.0
9.81000, 168.0
9.88000, 144.0
9.95000, 149.0
10.02000, 143.0
10.09000, 142.0
10.16000, 153.0
10.23000, 130.0
10.30000, 132.0
10.37000, 128.0
10.44000, 151.0
10.51000, 132.0
10.58000, 143.0
10.65000, 113.0
10.72000, 126.0
10.79000, 125.0
10.86000, 119.0
10.93000, 125.0
11.00000, 122.0
11.07000, 123.0
11.14000, 107.0
11.21000, 101.0
11.28000, 106.0
11.35000, 115.0
11.42000, 110.0
11.49000, 105.0
11.56000, 114.0
11.63000, 104.0
11.70000, 99.0
11.77000, 81.0
11.84000, 106.0
11.91000, 111.0
11.98000, 91.0
12.05000, 104.0
12.12000, 92.0
12.19000, 86.0
12.26000, 89.0
12.33000, 90.0
12.40000, 89.0
12.47000, 90.0
12.54000, 89.0
12.61000, 93.0
12.68000, 83.0
12.75000, 74.0
12.82000, 86.0
12.89000, 72.0
12.96000, 68.0
13.03000, 82.0
13.10000, 85.0
13.17000, 77.0
13.24000, 74.0
13.31000, 72.0
13.38000, 77.0
13.45000, 67.0
13.52000, 77.0
13.59000, 67.0
13.66000, 66.0
13.73000, 69.0
13.80000, 61.0
13.87000, 70.0
13.94000, 55.0
14.01000, 60.0
14.08000, 62.0
14.15000, 61.0
14.22000, 61.0
14.29000, 61.0
14.36000, 65.0
14.43000, 61.0
14.50000, 59.0
14.57000, 57.0
14.64000, 47.0
14.71000, 52.0
14.78000, 51.0
14.85000, 56.0
14.92000, 53.0
14.99000, 42.0
15.06000, 46.0
15.13000, 47.0
15.20000, 44.0
15.27000, 48.0
15.34000, 37.0
15.41000, 52.0
15.48000, 50.0
15.55000, 40.0
15.62000, 38.0
15.69000, 38.0
15.76000, 37.0
15.83000, 53.0
15.90000, 46.0
15.97000, 34.0
16.04000, 32.0
16.11000, 35.0
16.18000, 40.0
16.25000, 38.0
16.32000, 33.0
16.39000, 33.0
16.46000, 28.0
16.53000, 34.0
16.60000, 30.0
16.67000, 30.0
16.74000, 34.0
16.81000, 25.0
16.88000, 29.0
16.95000, 31.0
17.02000, 29.0
17.09000, 25.0
17.16000, 33.0
17.23000, 25.0
17.30000, 28.0
17.37000, 20.0
17.44000, 24.0
17.51000, 27.0
17.58000, 24.0
17.65000, 25.0
17.72000, 21.0
17.79000, 23.0
17.86000, 22.0
17.93000, 21.0
18.00000, 25.0
18.07000, 22.0
18.14000, 15.0
18.21000, 21.0
18.28000, 19.0
18.35000, 17.0
18.42000, 18.0
18.49000, 24.0
18.56000, 18.0
18.63000, 21.0
18.70000, 16.0
18.77000, 19.0
18.84000, 17.0
18.91000, 18.0
18.98000, 17.0
19.05000, 18.0
19.12000, 22.0
19.19000, 17.0
19.26000, 17.0
19.33000, 18.0
19.40000, 14.0
19.47000, 16.0
19.54000, 11.0
19.61000, 13.0
19.68000, 17.0
19.75000, 15.0
19.82000, 16.0
19.89000, 11.0
19.96000, 13.0
20.03000, 12.0
20.10000, 19.0
20.17000, 11.0
20.24000, 10.0
20.27000, 10.0
#ENDOFDATA   :